!OUTPUT FROM IECWIND v4.12 (19-Jun-2001) - IEC 61400-1 2nd EDITION.
 ! 1-YEAR EXTREME DIRECTION CHANGE IEC CONDITION
! for IEC Turbine Class 1 and IEC Turbulence Category A
! Rotor diameter =   5.8 m. 
!  34.6 m hub-height yields   21.0 m turbulence scale. 
!---------------------------------------------------------------
!Stats for this wind file:
!     The transient occurs over  6.0 seconds.
!     The maximum direction change is  -51.57  degrees.
!     This maximum occurs at   14.00 seconds.
!     The wind inflow inclination angle is  8.0  degrees to the horizontal.
!---------------------------------------------------------------
 ! Time		Wind		Wind		Vertical	Horiz.		Pwr.Law		Lin.Vert.	Gust
 !		Speed		Dir		Speed		Shear		Vert.Shr	Shear		Speed
 ! (sec)	(m/s)		(Deg)		(m/s)								(m/s)
    0.000	   11.883	    0.000	    1.670	    0.000	    0.200	    0.000	    0.000
    8.000	   11.883	    0.000	    1.670	    0.000	    0.200	    0.000	    0.000
    8.010	   11.883	    0.000	    1.670	    0.000	    0.200	    0.000	    0.000
    8.020	   11.883	   -0.001	    1.670	    0.000	    0.200	    0.000	    0.000
    8.030	   11.883	   -0.003	    1.670	    0.000	    0.200	    0.000	    0.000
    8.040	   11.883	   -0.006	    1.670	    0.000	    0.200	    0.000	    0.000
    8.050	   11.883	   -0.009	    1.670	    0.000	    0.200	    0.000	    0.000
    8.060	   11.883	   -0.013	    1.670	    0.000	    0.200	    0.000	    0.000
    8.070	   11.883	   -0.017	    1.670	    0.000	    0.200	    0.000	    0.000
    8.080	   11.883	   -0.023	    1.670	    0.000	    0.200	    0.000	    0.000
    8.090	   11.883	   -0.029	    1.670	    0.000	    0.200	    0.000	    0.000
    8.100	   11.883	   -0.035	    1.670	    0.000	    0.200	    0.000	    0.000
    8.110	   11.883	   -0.043	    1.670	    0.000	    0.200	    0.000	    0.000
    8.120	   11.883	   -0.051	    1.670	    0.000	    0.200	    0.000	    0.000
    8.130	   11.883	   -0.060	    1.670	    0.000	    0.200	    0.000	    0.000
    8.140	   11.883	   -0.069	    1.670	    0.000	    0.200	    0.000	    0.000
    8.150	   11.883	   -0.079	    1.670	    0.000	    0.200	    0.000	    0.000
    8.160	   11.883	   -0.090	    1.670	    0.000	    0.200	    0.000	    0.000
    8.170	   11.883	   -0.102	    1.670	    0.000	    0.200	    0.000	    0.000
    8.180	   11.883	   -0.114	    1.670	    0.000	    0.200	    0.000	    0.000
    8.190	   11.883	   -0.128	    1.670	    0.000	    0.200	    0.000	    0.000
    8.200	   11.883	   -0.141	    1.670	    0.000	    0.200	    0.000	    0.000
    8.210	   11.883	   -0.156	    1.670	    0.000	    0.200	    0.000	    0.000
    8.220	   11.883	   -0.171	    1.670	    0.000	    0.200	    0.000	    0.000
    8.230	   11.883	   -0.187	    1.670	    0.000	    0.200	    0.000	    0.000
    8.240	   11.883	   -0.203	    1.670	    0.000	    0.200	    0.000	    0.000
    8.250	   11.883	   -0.221	    1.670	    0.000	    0.200	    0.000	    0.000
    8.260	   11.883	   -0.239	    1.670	    0.000	    0.200	    0.000	    0.000
    8.270	   11.883	   -0.257	    1.670	    0.000	    0.200	    0.000	    0.000
    8.280	   11.883	   -0.277	    1.670	    0.000	    0.200	    0.000	    0.000
    8.290	   11.883	   -0.297	    1.670	    0.000	    0.200	    0.000	    0.000
    8.300	   11.883	   -0.317	    1.670	    0.000	    0.200	    0.000	    0.000
    8.310	   11.883	   -0.339	    1.670	    0.000	    0.200	    0.000	    0.000
    8.320	   11.883	   -0.361	    1.670	    0.000	    0.200	    0.000	    0.000
    8.330	   11.883	   -0.384	    1.670	    0.000	    0.200	    0.000	    0.000
    8.340	   11.883	   -0.408	    1.670	    0.000	    0.200	    0.000	    0.000
    8.350	   11.883	   -0.432	    1.670	    0.000	    0.200	    0.000	    0.000
    8.360	   11.883	   -0.457	    1.670	    0.000	    0.200	    0.000	    0.000
    8.370	   11.883	   -0.482	    1.670	    0.000	    0.200	    0.000	    0.000
    8.380	   11.883	   -0.509	    1.670	    0.000	    0.200	    0.000	    0.000
    8.390	   11.883	   -0.536	    1.670	    0.000	    0.200	    0.000	    0.000
    8.400	   11.883	   -0.564	    1.670	    0.000	    0.200	    0.000	    0.000
    8.410	   11.883	   -0.592	    1.670	    0.000	    0.200	    0.000	    0.000
    8.420	   11.883	   -0.621	    1.670	    0.000	    0.200	    0.000	    0.000
    8.430	   11.883	   -0.651	    1.670	    0.000	    0.200	    0.000	    0.000
    8.440	   11.883	   -0.681	    1.670	    0.000	    0.200	    0.000	    0.000
    8.450	   11.883	   -0.712	    1.670	    0.000	    0.200	    0.000	    0.000
    8.460	   11.883	   -0.744	    1.670	    0.000	    0.200	    0.000	    0.000
    8.470	   11.883	   -0.777	    1.670	    0.000	    0.200	    0.000	    0.000
    8.480	   11.883	   -0.810	    1.670	    0.000	    0.200	    0.000	    0.000
    8.490	   11.883	   -0.844	    1.670	    0.000	    0.200	    0.000	    0.000
    8.500	   11.883	   -0.879	    1.670	    0.000	    0.200	    0.000	    0.000
    8.510	   11.883	   -0.914	    1.670	    0.000	    0.200	    0.000	    0.000
    8.520	   11.883	   -0.950	    1.670	    0.000	    0.200	    0.000	    0.000
    8.530	   11.883	   -0.987	    1.670	    0.000	    0.200	    0.000	    0.000
    8.540	   11.883	   -1.024	    1.670	    0.000	    0.200	    0.000	    0.000
    8.550	   11.883	   -1.062	    1.670	    0.000	    0.200	    0.000	    0.000
    8.560	   11.883	   -1.101	    1.670	    0.000	    0.200	    0.000	    0.000
    8.570	   11.883	   -1.140	    1.670	    0.000	    0.200	    0.000	    0.000
    8.580	   11.883	   -1.180	    1.670	    0.000	    0.200	    0.000	    0.000
    8.590	   11.883	   -1.221	    1.670	    0.000	    0.200	    0.000	    0.000
    8.600	   11.883	   -1.262	    1.670	    0.000	    0.200	    0.000	    0.000
    8.610	   11.883	   -1.304	    1.670	    0.000	    0.200	    0.000	    0.000
    8.620	   11.883	   -1.347	    1.670	    0.000	    0.200	    0.000	    0.000
    8.630	   11.883	   -1.390	    1.670	    0.000	    0.200	    0.000	    0.000
    8.640	   11.883	   -1.434	    1.670	    0.000	    0.200	    0.000	    0.000
    8.650	   11.883	   -1.479	    1.670	    0.000	    0.200	    0.000	    0.000
    8.660	   11.883	   -1.525	    1.670	    0.000	    0.200	    0.000	    0.000
    8.670	   11.883	   -1.571	    1.670	    0.000	    0.200	    0.000	    0.000
    8.680	   11.883	   -1.617	    1.670	    0.000	    0.200	    0.000	    0.000
    8.690	   11.883	   -1.665	    1.670	    0.000	    0.200	    0.000	    0.000
    8.700	   11.883	   -1.713	    1.670	    0.000	    0.200	    0.000	    0.000
    8.710	   11.883	   -1.761	    1.670	    0.000	    0.200	    0.000	    0.000
    8.720	   11.883	   -1.811	    1.670	    0.000	    0.200	    0.000	    0.000
    8.730	   11.883	   -1.861	    1.670	    0.000	    0.200	    0.000	    0.000
    8.740	   11.883	   -1.912	    1.670	    0.000	    0.200	    0.000	    0.000
    8.750	   11.883	   -1.963	    1.670	    0.000	    0.200	    0.000	    0.000
    8.760	   11.883	   -2.015	    1.670	    0.000	    0.200	    0.000	    0.000
    8.770	   11.883	   -2.068	    1.670	    0.000	    0.200	    0.000	    0.000
    8.780	   11.883	   -2.121	    1.670	    0.000	    0.200	    0.000	    0.000
    8.790	   11.883	   -2.175	    1.670	    0.000	    0.200	    0.000	    0.000
    8.800	   11.883	   -2.229	    1.670	    0.000	    0.200	    0.000	    0.000
    8.810	   11.883	   -2.285	    1.670	    0.000	    0.200	    0.000	    0.000
    8.820	   11.883	   -2.341	    1.670	    0.000	    0.200	    0.000	    0.000
    8.830	   11.883	   -2.397	    1.670	    0.000	    0.200	    0.000	    0.000
    8.840	   11.883	   -2.454	    1.670	    0.000	    0.200	    0.000	    0.000
    8.850	   11.883	   -2.512	    1.670	    0.000	    0.200	    0.000	    0.000
    8.860	   11.883	   -2.570	    1.670	    0.000	    0.200	    0.000	    0.000
    8.870	   11.883	   -2.630	    1.670	    0.000	    0.200	    0.000	    0.000
    8.880	   11.883	   -2.689	    1.670	    0.000	    0.200	    0.000	    0.000
    8.890	   11.883	   -2.750	    1.670	    0.000	    0.200	    0.000	    0.000
    8.900	   11.883	   -2.811	    1.670	    0.000	    0.200	    0.000	    0.000
    8.910	   11.883	   -2.872	    1.670	    0.000	    0.200	    0.000	    0.000
    8.920	   11.883	   -2.934	    1.670	    0.000	    0.200	    0.000	    0.000
    8.930	   11.883	   -2.997	    1.670	    0.000	    0.200	    0.000	    0.000
    8.940	   11.883	   -3.061	    1.670	    0.000	    0.200	    0.000	    0.000
    8.950	   11.883	   -3.125	    1.670	    0.000	    0.200	    0.000	    0.000
    8.960	   11.883	   -3.190	    1.670	    0.000	    0.200	    0.000	    0.000
    8.970	   11.883	   -3.255	    1.670	    0.000	    0.200	    0.000	    0.000
    8.980	   11.883	   -3.321	    1.670	    0.000	    0.200	    0.000	    0.000
    8.990	   11.883	   -3.388	    1.670	    0.000	    0.200	    0.000	    0.000
    9.000	   11.883	   -3.455	    1.670	    0.000	    0.200	    0.000	    0.000
    9.010	   11.883	   -3.523	    1.670	    0.000	    0.200	    0.000	    0.000
    9.020	   11.883	   -3.591	    1.670	    0.000	    0.200	    0.000	    0.000
    9.030	   11.883	   -3.660	    1.670	    0.000	    0.200	    0.000	    0.000
    9.040	   11.883	   -3.730	    1.670	    0.000	    0.200	    0.000	    0.000
    9.050	   11.883	   -3.800	    1.670	    0.000	    0.200	    0.000	    0.000
    9.060	   11.883	   -3.871	    1.670	    0.000	    0.200	    0.000	    0.000
    9.070	   11.883	   -3.942	    1.670	    0.000	    0.200	    0.000	    0.000
    9.080	   11.883	   -4.014	    1.670	    0.000	    0.200	    0.000	    0.000
    9.090	   11.883	   -4.087	    1.670	    0.000	    0.200	    0.000	    0.000
    9.100	   11.883	   -4.160	    1.670	    0.000	    0.200	    0.000	    0.000
    9.110	   11.883	   -4.234	    1.670	    0.000	    0.200	    0.000	    0.000
    9.120	   11.883	   -4.308	    1.670	    0.000	    0.200	    0.000	    0.000
    9.130	   11.883	   -4.383	    1.670	    0.000	    0.200	    0.000	    0.000
    9.140	   11.883	   -4.459	    1.670	    0.000	    0.200	    0.000	    0.000
    9.150	   11.883	   -4.535	    1.670	    0.000	    0.200	    0.000	    0.000
    9.160	   11.883	   -4.612	    1.670	    0.000	    0.200	    0.000	    0.000
    9.170	   11.883	   -4.689	    1.670	    0.000	    0.200	    0.000	    0.000
    9.180	   11.883	   -4.767	    1.670	    0.000	    0.200	    0.000	    0.000
    9.190	   11.883	   -4.846	    1.670	    0.000	    0.200	    0.000	    0.000
    9.200	   11.883	   -4.925	    1.670	    0.000	    0.200	    0.000	    0.000
    9.210	   11.883	   -5.005	    1.670	    0.000	    0.200	    0.000	    0.000
    9.220	   11.883	   -5.085	    1.670	    0.000	    0.200	    0.000	    0.000
    9.230	   11.883	   -5.166	    1.670	    0.000	    0.200	    0.000	    0.000
    9.240	   11.883	   -5.247	    1.670	    0.000	    0.200	    0.000	    0.000
    9.250	   11.883	   -5.329	    1.670	    0.000	    0.200	    0.000	    0.000
    9.260	   11.883	   -5.411	    1.670	    0.000	    0.200	    0.000	    0.000
    9.270	   11.883	   -5.494	    1.670	    0.000	    0.200	    0.000	    0.000
    9.280	   11.883	   -5.578	    1.670	    0.000	    0.200	    0.000	    0.000
    9.290	   11.883	   -5.662	    1.670	    0.000	    0.200	    0.000	    0.000
    9.300	   11.883	   -5.747	    1.670	    0.000	    0.200	    0.000	    0.000
    9.310	   11.883	   -5.832	    1.670	    0.000	    0.200	    0.000	    0.000
    9.320	   11.883	   -5.918	    1.670	    0.000	    0.200	    0.000	    0.000
    9.330	   11.883	   -6.004	    1.670	    0.000	    0.200	    0.000	    0.000
    9.340	   11.883	   -6.091	    1.670	    0.000	    0.200	    0.000	    0.000
    9.350	   11.883	   -6.178	    1.670	    0.000	    0.200	    0.000	    0.000
    9.360	   11.883	   -6.266	    1.670	    0.000	    0.200	    0.000	    0.000
    9.370	   11.883	   -6.355	    1.670	    0.000	    0.200	    0.000	    0.000
    9.380	   11.883	   -6.444	    1.670	    0.000	    0.200	    0.000	    0.000
    9.390	   11.883	   -6.533	    1.670	    0.000	    0.200	    0.000	    0.000
    9.400	   11.883	   -6.624	    1.670	    0.000	    0.200	    0.000	    0.000
    9.410	   11.883	   -6.714	    1.670	    0.000	    0.200	    0.000	    0.000
    9.420	   11.883	   -6.805	    1.670	    0.000	    0.200	    0.000	    0.000
    9.430	   11.883	   -6.897	    1.670	    0.000	    0.200	    0.000	    0.000
    9.440	   11.883	   -6.989	    1.670	    0.000	    0.200	    0.000	    0.000
    9.450	   11.883	   -7.082	    1.670	    0.000	    0.200	    0.000	    0.000
    9.460	   11.883	   -7.175	    1.670	    0.000	    0.200	    0.000	    0.000
    9.470	   11.883	   -7.269	    1.670	    0.000	    0.200	    0.000	    0.000
    9.480	   11.883	   -7.363	    1.670	    0.000	    0.200	    0.000	    0.000
    9.490	   11.883	   -7.458	    1.670	    0.000	    0.200	    0.000	    0.000
    9.500	   11.883	   -7.553	    1.670	    0.000	    0.200	    0.000	    0.000
    9.510	   11.883	   -7.649	    1.670	    0.000	    0.200	    0.000	    0.000
    9.520	   11.883	   -7.745	    1.670	    0.000	    0.200	    0.000	    0.000
    9.530	   11.883	   -7.842	    1.670	    0.000	    0.200	    0.000	    0.000
    9.540	   11.883	   -7.939	    1.670	    0.000	    0.200	    0.000	    0.000
    9.550	   11.883	   -8.036	    1.670	    0.000	    0.200	    0.000	    0.000
    9.560	   11.883	   -8.135	    1.670	    0.000	    0.200	    0.000	    0.000
    9.570	   11.883	   -8.233	    1.670	    0.000	    0.200	    0.000	    0.000
    9.580	   11.883	   -8.332	    1.670	    0.000	    0.200	    0.000	    0.000
    9.590	   11.883	   -8.432	    1.670	    0.000	    0.200	    0.000	    0.000
    9.600	   11.883	   -8.532	    1.670	    0.000	    0.200	    0.000	    0.000
    9.610	   11.883	   -8.633	    1.670	    0.000	    0.200	    0.000	    0.000
    9.620	   11.883	   -8.734	    1.670	    0.000	    0.200	    0.000	    0.000
    9.630	   11.883	   -8.835	    1.670	    0.000	    0.200	    0.000	    0.000
    9.640	   11.883	   -8.937	    1.670	    0.000	    0.200	    0.000	    0.000
    9.650	   11.883	   -9.040	    1.670	    0.000	    0.200	    0.000	    0.000
    9.660	   11.883	   -9.143	    1.670	    0.000	    0.200	    0.000	    0.000
    9.670	   11.883	   -9.246	    1.670	    0.000	    0.200	    0.000	    0.000
    9.680	   11.883	   -9.350	    1.670	    0.000	    0.200	    0.000	    0.000
    9.690	   11.883	   -9.454	    1.670	    0.000	    0.200	    0.000	    0.000
    9.700	   11.883	   -9.559	    1.670	    0.000	    0.200	    0.000	    0.000
    9.710	   11.883	   -9.664	    1.670	    0.000	    0.200	    0.000	    0.000
    9.720	   11.883	   -9.770	    1.670	    0.000	    0.200	    0.000	    0.000
    9.730	   11.883	   -9.876	    1.670	    0.000	    0.200	    0.000	    0.000
    9.740	   11.883	   -9.982	    1.670	    0.000	    0.200	    0.000	    0.000
    9.750	   11.883	  -10.089	    1.670	    0.000	    0.200	    0.000	    0.000
    9.760	   11.883	  -10.196	    1.670	    0.000	    0.200	    0.000	    0.000
    9.770	   11.883	  -10.304	    1.670	    0.000	    0.200	    0.000	    0.000
    9.780	   11.883	  -10.412	    1.670	    0.000	    0.200	    0.000	    0.000
    9.790	   11.883	  -10.521	    1.670	    0.000	    0.200	    0.000	    0.000
    9.800	   11.883	  -10.630	    1.670	    0.000	    0.200	    0.000	    0.000
    9.810	   11.883	  -10.739	    1.670	    0.000	    0.200	    0.000	    0.000
    9.820	   11.883	  -10.849	    1.670	    0.000	    0.200	    0.000	    0.000
    9.830	   11.883	  -10.959	    1.670	    0.000	    0.200	    0.000	    0.000
    9.840	   11.883	  -11.070	    1.670	    0.000	    0.200	    0.000	    0.000
    9.850	   11.883	  -11.181	    1.670	    0.000	    0.200	    0.000	    0.000
    9.860	   11.883	  -11.293	    1.670	    0.000	    0.200	    0.000	    0.000
    9.870	   11.883	  -11.404	    1.670	    0.000	    0.200	    0.000	    0.000
    9.880	   11.883	  -11.517	    1.670	    0.000	    0.200	    0.000	    0.000
    9.890	   11.883	  -11.629	    1.670	    0.000	    0.200	    0.000	    0.000
    9.900	   11.883	  -11.742	    1.670	    0.000	    0.200	    0.000	    0.000
    9.910	   11.883	  -11.856	    1.670	    0.000	    0.200	    0.000	    0.000
    9.920	   11.883	  -11.970	    1.670	    0.000	    0.200	    0.000	    0.000
    9.930	   11.883	  -12.084	    1.670	    0.000	    0.200	    0.000	    0.000
    9.940	   11.883	  -12.198	    1.670	    0.000	    0.200	    0.000	    0.000
    9.950	   11.883	  -12.313	    1.670	    0.000	    0.200	    0.000	    0.000
    9.960	   11.883	  -12.429	    1.670	    0.000	    0.200	    0.000	    0.000
    9.970	   11.883	  -12.544	    1.670	    0.000	    0.200	    0.000	    0.000
    9.980	   11.883	  -12.660	    1.670	    0.000	    0.200	    0.000	    0.000
    9.990	   11.883	  -12.777	    1.670	    0.000	    0.200	    0.000	    0.000
   10.000	   11.883	  -12.894	    1.670	    0.000	    0.200	    0.000	    0.000
   10.010	   11.883	  -13.011	    1.670	    0.000	    0.200	    0.000	    0.000
   10.020	   11.883	  -13.128	    1.670	    0.000	    0.200	    0.000	    0.000
   10.030	   11.883	  -13.246	    1.670	    0.000	    0.200	    0.000	    0.000
   10.040	   11.883	  -13.364	    1.670	    0.000	    0.200	    0.000	    0.000
   10.050	   11.883	  -13.483	    1.670	    0.000	    0.200	    0.000	    0.000
   10.060	   11.883	  -13.601	    1.670	    0.000	    0.200	    0.000	    0.000
   10.070	   11.883	  -13.721	    1.670	    0.000	    0.200	    0.000	    0.000
   10.080	   11.883	  -13.840	    1.670	    0.000	    0.200	    0.000	    0.000
   10.090	   11.883	  -13.960	    1.670	    0.000	    0.200	    0.000	    0.000
   10.100	   11.883	  -14.080	    1.670	    0.000	    0.200	    0.000	    0.000
   10.110	   11.883	  -14.200	    1.670	    0.000	    0.200	    0.000	    0.000
   10.120	   11.883	  -14.321	    1.670	    0.000	    0.200	    0.000	    0.000
   10.130	   11.883	  -14.442	    1.670	    0.000	    0.200	    0.000	    0.000
   10.140	   11.883	  -14.564	    1.670	    0.000	    0.200	    0.000	    0.000
   10.150	   11.883	  -14.685	    1.670	    0.000	    0.200	    0.000	    0.000
   10.160	   11.883	  -14.807	    1.670	    0.000	    0.200	    0.000	    0.000
   10.170	   11.883	  -14.930	    1.670	    0.000	    0.200	    0.000	    0.000
   10.180	   11.883	  -15.052	    1.670	    0.000	    0.200	    0.000	    0.000
   10.190	   11.883	  -15.175	    1.670	    0.000	    0.200	    0.000	    0.000
   10.200	   11.883	  -15.299	    1.670	    0.000	    0.200	    0.000	    0.000
   10.210	   11.883	  -15.422	    1.670	    0.000	    0.200	    0.000	    0.000
   10.220	   11.883	  -15.546	    1.670	    0.000	    0.200	    0.000	    0.000
   10.230	   11.883	  -15.670	    1.670	    0.000	    0.200	    0.000	    0.000
   10.240	   11.883	  -15.794	    1.670	    0.000	    0.200	    0.000	    0.000
   10.250	   11.883	  -15.919	    1.670	    0.000	    0.200	    0.000	    0.000
   10.260	   11.883	  -16.044	    1.670	    0.000	    0.200	    0.000	    0.000
   10.270	   11.883	  -16.169	    1.670	    0.000	    0.200	    0.000	    0.000
   10.280	   11.883	  -16.294	    1.670	    0.000	    0.200	    0.000	    0.000
   10.290	   11.883	  -16.420	    1.670	    0.000	    0.200	    0.000	    0.000
   10.300	   11.883	  -16.546	    1.670	    0.000	    0.200	    0.000	    0.000
   10.310	   11.883	  -16.672	    1.670	    0.000	    0.200	    0.000	    0.000
   10.320	   11.883	  -16.798	    1.670	    0.000	    0.200	    0.000	    0.000
   10.330	   11.883	  -16.925	    1.670	    0.000	    0.200	    0.000	    0.000
   10.340	   11.883	  -17.052	    1.670	    0.000	    0.200	    0.000	    0.000
   10.350	   11.883	  -17.179	    1.670	    0.000	    0.200	    0.000	    0.000
   10.360	   11.883	  -17.307	    1.670	    0.000	    0.200	    0.000	    0.000
   10.370	   11.883	  -17.434	    1.670	    0.000	    0.200	    0.000	    0.000
   10.380	   11.883	  -17.562	    1.670	    0.000	    0.200	    0.000	    0.000
   10.390	   11.883	  -17.690	    1.670	    0.000	    0.200	    0.000	    0.000
   10.400	   11.883	  -17.818	    1.670	    0.000	    0.200	    0.000	    0.000
   10.410	   11.883	  -17.947	    1.670	    0.000	    0.200	    0.000	    0.000
   10.420	   11.883	  -18.076	    1.670	    0.000	    0.200	    0.000	    0.000
   10.430	   11.883	  -18.205	    1.670	    0.000	    0.200	    0.000	    0.000
   10.440	   11.883	  -18.334	    1.670	    0.000	    0.200	    0.000	    0.000
   10.450	   11.883	  -18.463	    1.670	    0.000	    0.200	    0.000	    0.000
   10.460	   11.883	  -18.593	    1.670	    0.000	    0.200	    0.000	    0.000
   10.470	   11.883	  -18.723	    1.670	    0.000	    0.200	    0.000	    0.000
   10.480	   11.883	  -18.852	    1.670	    0.000	    0.200	    0.000	    0.000
   10.490	   11.883	  -18.983	    1.670	    0.000	    0.200	    0.000	    0.000
   10.500	   11.883	  -19.113	    1.670	    0.000	    0.200	    0.000	    0.000
   10.510	   11.883	  -19.243	    1.670	    0.000	    0.200	    0.000	    0.000
   10.520	   11.883	  -19.374	    1.670	    0.000	    0.200	    0.000	    0.000
   10.530	   11.883	  -19.505	    1.670	    0.000	    0.200	    0.000	    0.000
   10.540	   11.883	  -19.636	    1.670	    0.000	    0.200	    0.000	    0.000
   10.550	   11.883	  -19.767	    1.670	    0.000	    0.200	    0.000	    0.000
   10.560	   11.883	  -19.899	    1.670	    0.000	    0.200	    0.000	    0.000
   10.570	   11.883	  -20.030	    1.670	    0.000	    0.200	    0.000	    0.000
   10.580	   11.883	  -20.162	    1.670	    0.000	    0.200	    0.000	    0.000
   10.590	   11.883	  -20.294	    1.670	    0.000	    0.200	    0.000	    0.000
   10.600	   11.883	  -20.426	    1.670	    0.000	    0.200	    0.000	    0.000
   10.610	   11.883	  -20.558	    1.670	    0.000	    0.200	    0.000	    0.000
   10.620	   11.883	  -20.690	    1.670	    0.000	    0.200	    0.000	    0.000
   10.630	   11.883	  -20.823	    1.670	    0.000	    0.200	    0.000	    0.000
   10.640	   11.883	  -20.955	    1.670	    0.000	    0.200	    0.000	    0.000
   10.650	   11.883	  -21.088	    1.670	    0.000	    0.200	    0.000	    0.000
   10.660	   11.883	  -21.221	    1.670	    0.000	    0.200	    0.000	    0.000
   10.670	   11.883	  -21.354	    1.670	    0.000	    0.200	    0.000	    0.000
   10.680	   11.883	  -21.487	    1.670	    0.000	    0.200	    0.000	    0.000
   10.690	   11.883	  -21.620	    1.670	    0.000	    0.200	    0.000	    0.000
   10.700	   11.883	  -21.753	    1.670	    0.000	    0.200	    0.000	    0.000
   10.710	   11.883	  -21.887	    1.670	    0.000	    0.200	    0.000	    0.000
   10.720	   11.883	  -22.020	    1.670	    0.000	    0.200	    0.000	    0.000
   10.730	   11.883	  -22.154	    1.670	    0.000	    0.200	    0.000	    0.000
   10.740	   11.883	  -22.287	    1.670	    0.000	    0.200	    0.000	    0.000
   10.750	   11.883	  -22.421	    1.670	    0.000	    0.200	    0.000	    0.000
   10.760	   11.883	  -22.555	    1.670	    0.000	    0.200	    0.000	    0.000
   10.770	   11.883	  -22.689	    1.670	    0.000	    0.200	    0.000	    0.000
   10.780	   11.883	  -22.823	    1.670	    0.000	    0.200	    0.000	    0.000
   10.790	   11.883	  -22.957	    1.670	    0.000	    0.200	    0.000	    0.000
   10.800	   11.883	  -23.092	    1.670	    0.000	    0.200	    0.000	    0.000
   10.810	   11.883	  -23.226	    1.670	    0.000	    0.200	    0.000	    0.000
   10.820	   11.883	  -23.360	    1.670	    0.000	    0.200	    0.000	    0.000
   10.830	   11.883	  -23.495	    1.670	    0.000	    0.200	    0.000	    0.000
   10.840	   11.883	  -23.629	    1.670	    0.000	    0.200	    0.000	    0.000
   10.850	   11.883	  -23.764	    1.670	    0.000	    0.200	    0.000	    0.000
   10.860	   11.883	  -23.899	    1.670	    0.000	    0.200	    0.000	    0.000
   10.870	   11.883	  -24.033	    1.670	    0.000	    0.200	    0.000	    0.000
   10.880	   11.883	  -24.168	    1.670	    0.000	    0.200	    0.000	    0.000
   10.890	   11.883	  -24.303	    1.670	    0.000	    0.200	    0.000	    0.000
   10.900	   11.883	  -24.438	    1.670	    0.000	    0.200	    0.000	    0.000
   10.910	   11.883	  -24.572	    1.670	    0.000	    0.200	    0.000	    0.000
   10.920	   11.883	  -24.707	    1.670	    0.000	    0.200	    0.000	    0.000
   10.930	   11.883	  -24.842	    1.670	    0.000	    0.200	    0.000	    0.000
   10.940	   11.883	  -24.977	    1.670	    0.000	    0.200	    0.000	    0.000
   10.950	   11.883	  -25.112	    1.670	    0.000	    0.200	    0.000	    0.000
   10.960	   11.883	  -25.247	    1.670	    0.000	    0.200	    0.000	    0.000
   10.970	   11.883	  -25.382	    1.670	    0.000	    0.200	    0.000	    0.000
   10.980	   11.883	  -25.517	    1.670	    0.000	    0.200	    0.000	    0.000
   10.990	   11.883	  -25.652	    1.670	    0.000	    0.200	    0.000	    0.000
   11.000	   11.883	  -25.787	    1.670	    0.000	    0.200	    0.000	    0.000
   11.010	   11.883	  -25.922	    1.670	    0.000	    0.200	    0.000	    0.000
   11.020	   11.883	  -26.057	    1.670	    0.000	    0.200	    0.000	    0.000
   11.030	   11.883	  -26.192	    1.670	    0.000	    0.200	    0.000	    0.000
   11.040	   11.883	  -26.327	    1.670	    0.000	    0.200	    0.000	    0.000
   11.050	   11.883	  -26.462	    1.670	    0.000	    0.200	    0.000	    0.000
   11.060	   11.883	  -26.597	    1.670	    0.000	    0.200	    0.000	    0.000
   11.070	   11.883	  -26.732	    1.670	    0.000	    0.200	    0.000	    0.000
   11.080	   11.883	  -26.867	    1.670	    0.000	    0.200	    0.000	    0.000
   11.090	   11.883	  -27.002	    1.670	    0.000	    0.200	    0.000	    0.000
   11.100	   11.883	  -27.137	    1.670	    0.000	    0.200	    0.000	    0.000
   11.110	   11.883	  -27.272	    1.670	    0.000	    0.200	    0.000	    0.000
   11.120	   11.883	  -27.406	    1.670	    0.000	    0.200	    0.000	    0.000
   11.130	   11.883	  -27.541	    1.670	    0.000	    0.200	    0.000	    0.000
   11.140	   11.883	  -27.676	    1.670	    0.000	    0.200	    0.000	    0.000
   11.150	   11.883	  -27.810	    1.670	    0.000	    0.200	    0.000	    0.000
   11.160	   11.883	  -27.945	    1.670	    0.000	    0.200	    0.000	    0.000
   11.170	   11.883	  -28.079	    1.670	    0.000	    0.200	    0.000	    0.000
   11.180	   11.883	  -28.214	    1.670	    0.000	    0.200	    0.000	    0.000
   11.190	   11.883	  -28.348	    1.670	    0.000	    0.200	    0.000	    0.000
   11.200	   11.883	  -28.483	    1.670	    0.000	    0.200	    0.000	    0.000
   11.210	   11.883	  -28.617	    1.670	    0.000	    0.200	    0.000	    0.000
   11.220	   11.883	  -28.751	    1.670	    0.000	    0.200	    0.000	    0.000
   11.230	   11.883	  -28.885	    1.670	    0.000	    0.200	    0.000	    0.000
   11.240	   11.883	  -29.019	    1.670	    0.000	    0.200	    0.000	    0.000
   11.250	   11.883	  -29.153	    1.670	    0.000	    0.200	    0.000	    0.000
   11.260	   11.883	  -29.287	    1.670	    0.000	    0.200	    0.000	    0.000
   11.270	   11.883	  -29.421	    1.670	    0.000	    0.200	    0.000	    0.000
   11.280	   11.883	  -29.554	    1.670	    0.000	    0.200	    0.000	    0.000
   11.290	   11.883	  -29.688	    1.670	    0.000	    0.200	    0.000	    0.000
   11.300	   11.883	  -29.821	    1.670	    0.000	    0.200	    0.000	    0.000
   11.310	   11.883	  -29.954	    1.670	    0.000	    0.200	    0.000	    0.000
   11.320	   11.883	  -30.088	    1.670	    0.000	    0.200	    0.000	    0.000
   11.330	   11.883	  -30.221	    1.670	    0.000	    0.200	    0.000	    0.000
   11.340	   11.883	  -30.354	    1.670	    0.000	    0.200	    0.000	    0.000
   11.350	   11.883	  -30.486	    1.670	    0.000	    0.200	    0.000	    0.000
   11.360	   11.883	  -30.619	    1.670	    0.000	    0.200	    0.000	    0.000
   11.370	   11.883	  -30.752	    1.670	    0.000	    0.200	    0.000	    0.000
   11.380	   11.883	  -30.884	    1.670	    0.000	    0.200	    0.000	    0.000
   11.390	   11.883	  -31.016	    1.670	    0.000	    0.200	    0.000	    0.000
   11.400	   11.883	  -31.149	    1.670	    0.000	    0.200	    0.000	    0.000
   11.410	   11.883	  -31.281	    1.670	    0.000	    0.200	    0.000	    0.000
   11.420	   11.883	  -31.412	    1.670	    0.000	    0.200	    0.000	    0.000
   11.430	   11.883	  -31.544	    1.670	    0.000	    0.200	    0.000	    0.000
   11.440	   11.883	  -31.676	    1.670	    0.000	    0.200	    0.000	    0.000
   11.450	   11.883	  -31.807	    1.670	    0.000	    0.200	    0.000	    0.000
   11.460	   11.883	  -31.938	    1.670	    0.000	    0.200	    0.000	    0.000
   11.470	   11.883	  -32.069	    1.670	    0.000	    0.200	    0.000	    0.000
   11.480	   11.883	  -32.200	    1.670	    0.000	    0.200	    0.000	    0.000
   11.490	   11.883	  -32.331	    1.670	    0.000	    0.200	    0.000	    0.000
   11.500	   11.883	  -32.461	    1.670	    0.000	    0.200	    0.000	    0.000
   11.510	   11.883	  -32.592	    1.670	    0.000	    0.200	    0.000	    0.000
   11.520	   11.883	  -32.722	    1.670	    0.000	    0.200	    0.000	    0.000
   11.530	   11.883	  -32.852	    1.670	    0.000	    0.200	    0.000	    0.000
   11.540	   11.883	  -32.982	    1.670	    0.000	    0.200	    0.000	    0.000
   11.550	   11.883	  -33.111	    1.670	    0.000	    0.200	    0.000	    0.000
   11.560	   11.883	  -33.240	    1.670	    0.000	    0.200	    0.000	    0.000
   11.570	   11.883	  -33.370	    1.670	    0.000	    0.200	    0.000	    0.000
   11.580	   11.883	  -33.499	    1.670	    0.000	    0.200	    0.000	    0.000
   11.590	   11.883	  -33.627	    1.670	    0.000	    0.200	    0.000	    0.000
   11.600	   11.883	  -33.756	    1.670	    0.000	    0.200	    0.000	    0.000
   11.610	   11.883	  -33.884	    1.670	    0.000	    0.200	    0.000	    0.000
   11.620	   11.883	  -34.012	    1.670	    0.000	    0.200	    0.000	    0.000
   11.630	   11.883	  -34.140	    1.670	    0.000	    0.200	    0.000	    0.000
   11.640	   11.883	  -34.268	    1.670	    0.000	    0.200	    0.000	    0.000
   11.650	   11.883	  -34.395	    1.670	    0.000	    0.200	    0.000	    0.000
   11.660	   11.883	  -34.522	    1.670	    0.000	    0.200	    0.000	    0.000
   11.670	   11.883	  -34.649	    1.670	    0.000	    0.200	    0.000	    0.000
   11.680	   11.883	  -34.776	    1.670	    0.000	    0.200	    0.000	    0.000
   11.690	   11.883	  -34.902	    1.670	    0.000	    0.200	    0.000	    0.000
   11.700	   11.883	  -35.028	    1.670	    0.000	    0.200	    0.000	    0.000
   11.710	   11.883	  -35.154	    1.670	    0.000	    0.200	    0.000	    0.000
   11.720	   11.883	  -35.280	    1.670	    0.000	    0.200	    0.000	    0.000
   11.730	   11.883	  -35.405	    1.670	    0.000	    0.200	    0.000	    0.000
   11.740	   11.883	  -35.531	    1.670	    0.000	    0.200	    0.000	    0.000
   11.750	   11.883	  -35.655	    1.670	    0.000	    0.200	    0.000	    0.000
   11.760	   11.883	  -35.780	    1.670	    0.000	    0.200	    0.000	    0.000
   11.770	   11.883	  -35.904	    1.670	    0.000	    0.200	    0.000	    0.000
   11.780	   11.883	  -36.028	    1.670	    0.000	    0.200	    0.000	    0.000
   11.790	   11.883	  -36.152	    1.670	    0.000	    0.200	    0.000	    0.000
   11.800	   11.883	  -36.276	    1.670	    0.000	    0.200	    0.000	    0.000
   11.810	   11.883	  -36.399	    1.670	    0.000	    0.200	    0.000	    0.000
   11.820	   11.883	  -36.522	    1.670	    0.000	    0.200	    0.000	    0.000
   11.830	   11.883	  -36.644	    1.670	    0.000	    0.200	    0.000	    0.000
   11.840	   11.883	  -36.767	    1.670	    0.000	    0.200	    0.000	    0.000
   11.850	   11.883	  -36.889	    1.670	    0.000	    0.200	    0.000	    0.000
   11.860	   11.883	  -37.010	    1.670	    0.000	    0.200	    0.000	    0.000
   11.870	   11.883	  -37.132	    1.670	    0.000	    0.200	    0.000	    0.000
   11.880	   11.883	  -37.253	    1.670	    0.000	    0.200	    0.000	    0.000
   11.890	   11.883	  -37.374	    1.670	    0.000	    0.200	    0.000	    0.000
   11.900	   11.883	  -37.494	    1.670	    0.000	    0.200	    0.000	    0.000
   11.910	   11.883	  -37.614	    1.670	    0.000	    0.200	    0.000	    0.000
   11.920	   11.883	  -37.734	    1.670	    0.000	    0.200	    0.000	    0.000
   11.930	   11.883	  -37.854	    1.670	    0.000	    0.200	    0.000	    0.000
   11.940	   11.883	  -37.973	    1.670	    0.000	    0.200	    0.000	    0.000
   11.950	   11.883	  -38.092	    1.670	    0.000	    0.200	    0.000	    0.000
   11.960	   11.883	  -38.210	    1.670	    0.000	    0.200	    0.000	    0.000
   11.970	   11.883	  -38.328	    1.670	    0.000	    0.200	    0.000	    0.000
   11.980	   11.883	  -38.446	    1.670	    0.000	    0.200	    0.000	    0.000
   11.990	   11.883	  -38.564	    1.670	    0.000	    0.200	    0.000	    0.000
   12.000	   11.883	  -38.681	    1.670	    0.000	    0.200	    0.000	    0.000
   12.010	   11.883	  -38.797	    1.670	    0.000	    0.200	    0.000	    0.000
   12.020	   11.883	  -38.914	    1.670	    0.000	    0.200	    0.000	    0.000
   12.030	   11.883	  -39.030	    1.670	    0.000	    0.200	    0.000	    0.000
   12.040	   11.883	  -39.146	    1.670	    0.000	    0.200	    0.000	    0.000
   12.050	   11.883	  -39.261	    1.670	    0.000	    0.200	    0.000	    0.000
   12.060	   11.883	  -39.376	    1.670	    0.000	    0.200	    0.000	    0.000
   12.070	   11.883	  -39.490	    1.670	    0.000	    0.200	    0.000	    0.000
   12.080	   11.883	  -39.605	    1.670	    0.000	    0.200	    0.000	    0.000
   12.090	   11.883	  -39.718	    1.670	    0.000	    0.200	    0.000	    0.000
   12.100	   11.883	  -39.832	    1.670	    0.000	    0.200	    0.000	    0.000
   12.110	   11.883	  -39.945	    1.670	    0.000	    0.200	    0.000	    0.000
   12.120	   11.883	  -40.058	    1.670	    0.000	    0.200	    0.000	    0.000
   12.130	   11.883	  -40.170	    1.670	    0.000	    0.200	    0.000	    0.000
   12.140	   11.883	  -40.282	    1.670	    0.000	    0.200	    0.000	    0.000
   12.150	   11.883	  -40.393	    1.670	    0.000	    0.200	    0.000	    0.000
   12.160	   11.883	  -40.504	    1.670	    0.000	    0.200	    0.000	    0.000
   12.170	   11.883	  -40.615	    1.670	    0.000	    0.200	    0.000	    0.000
   12.180	   11.883	  -40.725	    1.670	    0.000	    0.200	    0.000	    0.000
   12.190	   11.883	  -40.835	    1.670	    0.000	    0.200	    0.000	    0.000
   12.200	   11.883	  -40.944	    1.670	    0.000	    0.200	    0.000	    0.000
   12.210	   11.883	  -41.053	    1.670	    0.000	    0.200	    0.000	    0.000
   12.220	   11.883	  -41.162	    1.670	    0.000	    0.200	    0.000	    0.000
   12.230	   11.883	  -41.270	    1.670	    0.000	    0.200	    0.000	    0.000
   12.240	   11.883	  -41.378	    1.670	    0.000	    0.200	    0.000	    0.000
   12.250	   11.883	  -41.485	    1.670	    0.000	    0.200	    0.000	    0.000
   12.260	   11.883	  -41.592	    1.670	    0.000	    0.200	    0.000	    0.000
   12.270	   11.883	  -41.699	    1.670	    0.000	    0.200	    0.000	    0.000
   12.280	   11.883	  -41.805	    1.670	    0.000	    0.200	    0.000	    0.000
   12.290	   11.883	  -41.910	    1.670	    0.000	    0.200	    0.000	    0.000
   12.300	   11.883	  -42.016	    1.670	    0.000	    0.200	    0.000	    0.000
   12.310	   11.883	  -42.120	    1.670	    0.000	    0.200	    0.000	    0.000
   12.320	   11.883	  -42.224	    1.670	    0.000	    0.200	    0.000	    0.000
   12.330	   11.883	  -42.328	    1.670	    0.000	    0.200	    0.000	    0.000
   12.340	   11.883	  -42.432	    1.670	    0.000	    0.200	    0.000	    0.000
   12.350	   11.883	  -42.535	    1.670	    0.000	    0.200	    0.000	    0.000
   12.360	   11.883	  -42.637	    1.670	    0.000	    0.200	    0.000	    0.000
   12.370	   11.883	  -42.739	    1.670	    0.000	    0.200	    0.000	    0.000
   12.380	   11.883	  -42.840	    1.670	    0.000	    0.200	    0.000	    0.000
   12.390	   11.883	  -42.942	    1.670	    0.000	    0.200	    0.000	    0.000
   12.400	   11.883	  -43.042	    1.670	    0.000	    0.200	    0.000	    0.000
   12.410	   11.883	  -43.142	    1.670	    0.000	    0.200	    0.000	    0.000
   12.420	   11.883	  -43.242	    1.670	    0.000	    0.200	    0.000	    0.000
   12.430	   11.883	  -43.341	    1.670	    0.000	    0.200	    0.000	    0.000
   12.440	   11.883	  -43.440	    1.670	    0.000	    0.200	    0.000	    0.000
   12.450	   11.883	  -43.538	    1.670	    0.000	    0.200	    0.000	    0.000
   12.460	   11.883	  -43.636	    1.670	    0.000	    0.200	    0.000	    0.000
   12.470	   11.883	  -43.733	    1.670	    0.000	    0.200	    0.000	    0.000
   12.480	   11.883	  -43.829	    1.670	    0.000	    0.200	    0.000	    0.000
   12.490	   11.883	  -43.926	    1.670	    0.000	    0.200	    0.000	    0.000
   12.500	   11.883	  -44.021	    1.670	    0.000	    0.200	    0.000	    0.000
   12.510	   11.883	  -44.117	    1.670	    0.000	    0.200	    0.000	    0.000
   12.520	   11.883	  -44.211	    1.670	    0.000	    0.200	    0.000	    0.000
   12.530	   11.883	  -44.306	    1.670	    0.000	    0.200	    0.000	    0.000
   12.540	   11.883	  -44.399	    1.670	    0.000	    0.200	    0.000	    0.000
   12.550	   11.883	  -44.492	    1.670	    0.000	    0.200	    0.000	    0.000
   12.560	   11.883	  -44.585	    1.670	    0.000	    0.200	    0.000	    0.000
   12.570	   11.883	  -44.677	    1.670	    0.000	    0.200	    0.000	    0.000
   12.580	   11.883	  -44.769	    1.670	    0.000	    0.200	    0.000	    0.000
   12.590	   11.883	  -44.860	    1.670	    0.000	    0.200	    0.000	    0.000
   12.600	   11.883	  -44.951	    1.670	    0.000	    0.200	    0.000	    0.000
   12.610	   11.883	  -45.041	    1.670	    0.000	    0.200	    0.000	    0.000
   12.620	   11.883	  -45.130	    1.670	    0.000	    0.200	    0.000	    0.000
   12.630	   11.883	  -45.219	    1.670	    0.000	    0.200	    0.000	    0.000
   12.640	   11.883	  -45.308	    1.670	    0.000	    0.200	    0.000	    0.000
   12.650	   11.883	  -45.396	    1.670	    0.000	    0.200	    0.000	    0.000
   12.660	   11.883	  -45.483	    1.670	    0.000	    0.200	    0.000	    0.000
   12.670	   11.883	  -45.570	    1.670	    0.000	    0.200	    0.000	    0.000
   12.680	   11.883	  -45.656	    1.670	    0.000	    0.200	    0.000	    0.000
   12.690	   11.883	  -45.742	    1.670	    0.000	    0.200	    0.000	    0.000
   12.700	   11.883	  -45.828	    1.670	    0.000	    0.200	    0.000	    0.000
   12.710	   11.883	  -45.912	    1.670	    0.000	    0.200	    0.000	    0.000
   12.720	   11.883	  -45.996	    1.670	    0.000	    0.200	    0.000	    0.000
   12.730	   11.883	  -46.080	    1.670	    0.000	    0.200	    0.000	    0.000
   12.740	   11.883	  -46.163	    1.670	    0.000	    0.200	    0.000	    0.000
   12.750	   11.883	  -46.245	    1.670	    0.000	    0.200	    0.000	    0.000
   12.760	   11.883	  -46.327	    1.670	    0.000	    0.200	    0.000	    0.000
   12.770	   11.883	  -46.409	    1.670	    0.000	    0.200	    0.000	    0.000
   12.780	   11.883	  -46.490	    1.670	    0.000	    0.200	    0.000	    0.000
   12.790	   11.883	  -46.570	    1.670	    0.000	    0.200	    0.000	    0.000
   12.800	   11.883	  -46.649	    1.670	    0.000	    0.200	    0.000	    0.000
   12.810	   11.883	  -46.728	    1.670	    0.000	    0.200	    0.000	    0.000
   12.820	   11.883	  -46.807	    1.670	    0.000	    0.200	    0.000	    0.000
   12.830	   11.883	  -46.885	    1.670	    0.000	    0.200	    0.000	    0.000
   12.840	   11.883	  -46.962	    1.670	    0.000	    0.200	    0.000	    0.000
   12.850	   11.883	  -47.039	    1.670	    0.000	    0.200	    0.000	    0.000
   12.860	   11.883	  -47.115	    1.670	    0.000	    0.200	    0.000	    0.000
   12.870	   11.883	  -47.191	    1.670	    0.000	    0.200	    0.000	    0.000
   12.880	   11.883	  -47.266	    1.670	    0.000	    0.200	    0.000	    0.000
   12.890	   11.883	  -47.340	    1.670	    0.000	    0.200	    0.000	    0.000
   12.900	   11.883	  -47.414	    1.670	    0.000	    0.200	    0.000	    0.000
   12.910	   11.883	  -47.487	    1.670	    0.000	    0.200	    0.000	    0.000
   12.920	   11.883	  -47.560	    1.670	    0.000	    0.200	    0.000	    0.000
   12.930	   11.883	  -47.632	    1.670	    0.000	    0.200	    0.000	    0.000
   12.940	   11.883	  -47.703	    1.670	    0.000	    0.200	    0.000	    0.000
   12.950	   11.883	  -47.774	    1.670	    0.000	    0.200	    0.000	    0.000
   12.960	   11.883	  -47.845	    1.670	    0.000	    0.200	    0.000	    0.000
   12.970	   11.883	  -47.914	    1.670	    0.000	    0.200	    0.000	    0.000
   12.980	   11.883	  -47.983	    1.670	    0.000	    0.200	    0.000	    0.000
   12.990	   11.883	  -48.052	    1.670	    0.000	    0.200	    0.000	    0.000
   13.000	   11.883	  -48.119	    1.670	    0.000	    0.200	    0.000	    0.000
   13.010	   11.883	  -48.187	    1.670	    0.000	    0.200	    0.000	    0.000
   13.020	   11.883	  -48.253	    1.670	    0.000	    0.200	    0.000	    0.000
   13.030	   11.883	  -48.319	    1.670	    0.000	    0.200	    0.000	    0.000
   13.040	   11.883	  -48.385	    1.670	    0.000	    0.200	    0.000	    0.000
   13.050	   11.883	  -48.449	    1.670	    0.000	    0.200	    0.000	    0.000
   13.060	   11.883	  -48.513	    1.670	    0.000	    0.200	    0.000	    0.000
   13.070	   11.883	  -48.577	    1.670	    0.000	    0.200	    0.000	    0.000
   13.080	   11.883	  -48.640	    1.670	    0.000	    0.200	    0.000	    0.000
   13.090	   11.883	  -48.702	    1.670	    0.000	    0.200	    0.000	    0.000
   13.100	   11.883	  -48.764	    1.670	    0.000	    0.200	    0.000	    0.000
   13.110	   11.883	  -48.825	    1.670	    0.000	    0.200	    0.000	    0.000
   13.120	   11.883	  -48.885	    1.670	    0.000	    0.200	    0.000	    0.000
   13.130	   11.883	  -48.945	    1.670	    0.000	    0.200	    0.000	    0.000
   13.140	   11.883	  -49.004	    1.670	    0.000	    0.200	    0.000	    0.000
   13.150	   11.883	  -49.062	    1.670	    0.000	    0.200	    0.000	    0.000
   13.160	   11.883	  -49.120	    1.670	    0.000	    0.200	    0.000	    0.000
   13.170	   11.883	  -49.177	    1.670	    0.000	    0.200	    0.000	    0.000
   13.180	   11.883	  -49.234	    1.670	    0.000	    0.200	    0.000	    0.000
   13.190	   11.883	  -49.290	    1.670	    0.000	    0.200	    0.000	    0.000
   13.200	   11.883	  -49.345	    1.670	    0.000	    0.200	    0.000	    0.000
   13.210	   11.883	  -49.399	    1.670	    0.000	    0.200	    0.000	    0.000
   13.220	   11.883	  -49.453	    1.670	    0.000	    0.200	    0.000	    0.000
   13.230	   11.883	  -49.507	    1.670	    0.000	    0.200	    0.000	    0.000
   13.240	   11.883	  -49.559	    1.670	    0.000	    0.200	    0.000	    0.000
   13.250	   11.883	  -49.611	    1.670	    0.000	    0.200	    0.000	    0.000
   13.260	   11.883	  -49.663	    1.670	    0.000	    0.200	    0.000	    0.000
   13.270	   11.883	  -49.713	    1.670	    0.000	    0.200	    0.000	    0.000
   13.280	   11.883	  -49.763	    1.670	    0.000	    0.200	    0.000	    0.000
   13.290	   11.883	  -49.813	    1.670	    0.000	    0.200	    0.000	    0.000
   13.300	   11.883	  -49.862	    1.670	    0.000	    0.200	    0.000	    0.000
   13.310	   11.883	  -49.910	    1.670	    0.000	    0.200	    0.000	    0.000
   13.320	   11.883	  -49.957	    1.670	    0.000	    0.200	    0.000	    0.000
   13.330	   11.883	  -50.004	    1.670	    0.000	    0.200	    0.000	    0.000
   13.340	   11.883	  -50.050	    1.670	    0.000	    0.200	    0.000	    0.000
   13.350	   11.883	  -50.095	    1.670	    0.000	    0.200	    0.000	    0.000
   13.360	   11.883	  -50.140	    1.670	    0.000	    0.200	    0.000	    0.000
   13.370	   11.883	  -50.184	    1.670	    0.000	    0.200	    0.000	    0.000
   13.380	   11.883	  -50.227	    1.670	    0.000	    0.200	    0.000	    0.000
   13.390	   11.883	  -50.270	    1.670	    0.000	    0.200	    0.000	    0.000
   13.400	   11.883	  -50.312	    1.670	    0.000	    0.200	    0.000	    0.000
   13.410	   11.883	  -50.354	    1.670	    0.000	    0.200	    0.000	    0.000
   13.420	   11.883	  -50.394	    1.670	    0.000	    0.200	    0.000	    0.000
   13.430	   11.883	  -50.434	    1.670	    0.000	    0.200	    0.000	    0.000
   13.440	   11.883	  -50.474	    1.670	    0.000	    0.200	    0.000	    0.000
   13.450	   11.883	  -50.512	    1.670	    0.000	    0.200	    0.000	    0.000
   13.460	   11.883	  -50.550	    1.670	    0.000	    0.200	    0.000	    0.000
   13.470	   11.883	  -50.588	    1.670	    0.000	    0.200	    0.000	    0.000
   13.480	   11.883	  -50.624	    1.670	    0.000	    0.200	    0.000	    0.000
   13.490	   11.883	  -50.660	    1.670	    0.000	    0.200	    0.000	    0.000
   13.500	   11.883	  -50.696	    1.670	    0.000	    0.200	    0.000	    0.000
   13.510	   11.883	  -50.730	    1.670	    0.000	    0.200	    0.000	    0.000
   13.520	   11.883	  -50.764	    1.670	    0.000	    0.200	    0.000	    0.000
   13.530	   11.883	  -50.797	    1.670	    0.000	    0.200	    0.000	    0.000
   13.540	   11.883	  -50.830	    1.670	    0.000	    0.200	    0.000	    0.000
   13.550	   11.883	  -50.862	    1.670	    0.000	    0.200	    0.000	    0.000
   13.560	   11.883	  -50.893	    1.670	    0.000	    0.200	    0.000	    0.000
   13.570	   11.883	  -50.923	    1.670	    0.000	    0.200	    0.000	    0.000
   13.580	   11.883	  -50.953	    1.670	    0.000	    0.200	    0.000	    0.000
   13.590	   11.883	  -50.982	    1.670	    0.000	    0.200	    0.000	    0.000
   13.600	   11.883	  -51.011	    1.670	    0.000	    0.200	    0.000	    0.000
   13.610	   11.883	  -51.039	    1.670	    0.000	    0.200	    0.000	    0.000
   13.620	   11.883	  -51.066	    1.670	    0.000	    0.200	    0.000	    0.000
   13.630	   11.883	  -51.092	    1.670	    0.000	    0.200	    0.000	    0.000
   13.640	   11.883	  -51.118	    1.670	    0.000	    0.200	    0.000	    0.000
   13.650	   11.883	  -51.143	    1.670	    0.000	    0.200	    0.000	    0.000
   13.660	   11.883	  -51.167	    1.670	    0.000	    0.200	    0.000	    0.000
   13.670	   11.883	  -51.190	    1.670	    0.000	    0.200	    0.000	    0.000
   13.680	   11.883	  -51.213	    1.670	    0.000	    0.200	    0.000	    0.000
   13.690	   11.883	  -51.235	    1.670	    0.000	    0.200	    0.000	    0.000
   13.700	   11.883	  -51.257	    1.670	    0.000	    0.200	    0.000	    0.000
   13.710	   11.883	  -51.278	    1.670	    0.000	    0.200	    0.000	    0.000
   13.720	   11.883	  -51.298	    1.670	    0.000	    0.200	    0.000	    0.000
   13.730	   11.883	  -51.317	    1.670	    0.000	    0.200	    0.000	    0.000
   13.740	   11.883	  -51.336	    1.670	    0.000	    0.200	    0.000	    0.000
   13.750	   11.883	  -51.354	    1.670	    0.000	    0.200	    0.000	    0.000
   13.760	   11.883	  -51.371	    1.670	    0.000	    0.200	    0.000	    0.000
   13.770	   11.883	  -51.388	    1.670	    0.000	    0.200	    0.000	    0.000
   13.780	   11.883	  -51.403	    1.670	    0.000	    0.200	    0.000	    0.000
   13.790	   11.883	  -51.419	    1.670	    0.000	    0.200	    0.000	    0.000
   13.800	   11.883	  -51.433	    1.670	    0.000	    0.200	    0.000	    0.000
   13.810	   11.883	  -51.447	    1.670	    0.000	    0.200	    0.000	    0.000
   13.820	   11.883	  -51.460	    1.670	    0.000	    0.200	    0.000	    0.000
   13.830	   11.883	  -51.472	    1.670	    0.000	    0.200	    0.000	    0.000
   13.840	   11.883	  -51.484	    1.670	    0.000	    0.200	    0.000	    0.000
   13.850	   11.883	  -51.495	    1.670	    0.000	    0.200	    0.000	    0.000
   13.860	   11.883	  -51.505	    1.670	    0.000	    0.200	    0.000	    0.000
   13.870	   11.883	  -51.515	    1.670	    0.000	    0.200	    0.000	    0.000
   13.880	   11.883	  -51.523	    1.670	    0.000	    0.200	    0.000	    0.000
   13.890	   11.883	  -51.532	    1.670	    0.000	    0.200	    0.000	    0.000
   13.900	   11.883	  -51.539	    1.670	    0.000	    0.200	    0.000	    0.000
   13.910	   11.883	  -51.546	    1.670	    0.000	    0.200	    0.000	    0.000
   13.920	   11.883	  -51.552	    1.670	    0.000	    0.200	    0.000	    0.000
   13.930	   11.883	  -51.557	    1.670	    0.000	    0.200	    0.000	    0.000
   13.940	   11.883	  -51.562	    1.670	    0.000	    0.200	    0.000	    0.000
   13.950	   11.883	  -51.565	    1.670	    0.000	    0.200	    0.000	    0.000
   13.960	   11.883	  -51.569	    1.670	    0.000	    0.200	    0.000	    0.000
   13.970	   11.883	  -51.571	    1.670	    0.000	    0.200	    0.000	    0.000
   13.980	   11.883	  -51.573	    1.670	    0.000	    0.200	    0.000	    0.000
   13.990	   11.883	  -51.574	    1.670	    0.000	    0.200	    0.000	    0.000
   14.000	   11.883	  -51.574	    1.670	    0.000	    0.200	    0.000	    0.000
  600.000	   11.883	  -51.574	    1.670	    0.000	    0.200	    0.000	    0.000
